Energy[keV],EffectiveArea[cmÂ²]
0,4.313
0.01096,4.372
0.02193,4.425
0.03289,4.567
0.04386,4.679
0.05482,4.792
0.06579,4.904
0.07675,5.069
0.08772,5.176
0.09868,5.264
0.1096,5.412
0.1206,5.495
0.1316,5.566
0.1425,5.637
0.1535,5.702
0.1645,5.761
0.1754,5.82
0.1864,5.873
0.1974,5.92
0.2083,5.968
0.2193,6.021
0.2303,6.044
0.2412,5.991
0.2522,5.956
0.2632,5.914
0.2741,5.873
0.2851,5.903
0.2961,5.973
0.307,5.985
0.318,5.991
0.3289,6.027
0.3399,6.074
0.3509,6.092
0.3618,6.092
0.3728,6.139
0.3838,6.168
0.3947,6.18
0.4057,6.192
0.4167,6.21
0.4276,6.257
0.4386,6.263
0.4496,6.287
0.4605,6.322
0.4715,6.328
0.4825,6.34
0.4934,6.357
0.5044,6.363
0.5154,6.375
0.5263,6.387
0.5373,6.399
0.5482,6.405
0.5592,6.417
0.5702,6.44
0.5811,6.446
0.5921,6.47
0.6031,6.476
0.614,6.482
0.625,6.529
0.636,6.529
0.6469,6.535
0.6579,6.558
0.6689,6.558
0.6798,6.57
0.6908,6.612
0.7018,6.612
0.7127,6.629
0.7237,6.635
0.7346,6.635
0.7456,6.635
0.7566,6.641
0.7675,6.659
0.7785,6.671
0.7895,6.694
0.8004,6.712
0.8114,6.73
0.8224,6.73
0.8333,6.747
0.8443,6.771
0.8553,6.771
0.8662,6.771
0.8772,6.771
0.8882,6.777
0.8991,6.783
0.9101,6.783
0.9211,6.795
0.932,6.801
0.943,6.812
0.9539,6.824
0.9649,6.83
0.9759,6.842
0.9868,6.842
0.9978,6.848
1.009,6.842
1.02,6.836
1.031,6.836
1.042,6.824
1.053,6.824
1.064,6.83
1.075,6.842
1.086,6.842
1.096,6.854
1.107,6.86
1.118,6.877
1.129,6.877
1.14,6.883
1.151,6.883
1.162,6.877
1.173,6.877
1.184,6.877
1.195,6.877
1.206,6.877
1.217,6.883
1.228,6.883
1.239,6.883
1.25,6.883
1.261,6.895
1.272,6.895
1.283,6.913
1.294,6.931
1.305,6.931
1.316,6.931
1.327,6.931
1.338,6.931
1.349,6.931
1.36,6.925
1.371,6.919
1.382,6.925
1.393,6.925
1.404,6.925
1.414,6.931
1.425,6.925
1.436,6.925
1.447,6.925
1.458,6.931
1.469,6.913
1.48,6.907
1.491,6.907
1.502,6.907
1.513,6.901
1.524,6.883
1.535,6.883
1.546,6.871
1.557,6.871
1.568,6.83
1.579,6.789
1.59,6.742
1.601,6.653
1.612,6.6
1.623,6.552
1.634,6.523
1.645,6.529
1.656,6.541
1.667,6.541
1.678,6.541
1.689,6.541
1.7,6.552
1.711,6.564
1.721,6.564
1.732,6.564
1.743,6.558
1.754,6.547
1.765,6.541
1.776,6.517
1.787,6.493
1.798,6.487
1.809,6.464
1.82,6.428
1.831,6.428
1.842,6.417
1.853,6.399
1.864,6.393
1.875,6.375
1.886,6.357
1.897,6.334
1.908,6.304
1.919,6.287
1.93,6.233
1.941,6.18
1.952,6.103
1.963,5.95
1.974,5.761
1.985,5.371
1.996,5.034
2.007,4.721
2.018,4.307
2.029,4.053
2.039,3.858
2.05,3.746
2.061,3.675
2.072,3.575
2.083,3.516
2.094,3.462
2.105,3.403
2.116,3.38
2.127,3.415
2.138,3.445
2.149,3.486
2.16,3.604
2.171,3.628
2.182,3.645
2.193,3.752
2.204,3.77
2.215,3.781
2.226,3.829
2.237,3.846
2.248,3.87
2.259,3.894
2.27,3.9
2.281,3.917
2.292,3.935
2.303,3.947
2.314,3.965
2.325,3.982
2.336,4.006
2.346,4.024
2.357,4.03
2.368,4.041
2.379,4.041
2.39,4.047
2.401,4.053
2.412,4.053
2.423,4.053
2.434,4.053
2.445,4.041
2.456,4.018
2.467,4
2.478,3.994
2.489,3.947
2.5,3.917
2.511,3.894
2.522,3.84
2.533,3.817
2.544,3.805
2.555,3.817
2.566,3.846
2.577,3.846
2.588,3.888
2.599,3.888
2.61,3.911
2.621,3.947
2.632,3.947
2.643,3.965
2.654,3.97
2.664,3.97
2.675,3.988
2.686,4.012
2.697,4.03
2.708,4.035
2.719,4.071
2.73,4.071
2.741,4.071
2.752,4.089
2.763,4.089
2.774,4.089
2.785,4.106
2.796,4.112
2.807,4.112
2.818,4.118
2.829,4.124
2.84,4.124
2.851,4.124
2.862,4.118
2.873,4.118
2.884,4.118
2.895,4.124
2.906,4.13
2.917,4.142
2.928,4.136
2.939,4.118
2.95,4.106
2.961,4.1
2.971,4.1
2.982,4.089
2.993,4.089
3.004,4.083
3.015,4.077
3.026,4.1
3.037,4.1
3.048,4.124
3.059,4.124
3.07,4.13
3.081,4.136
3.092,4.136
3.103,4.148
3.114,4.142
3.125,4.148
3.136,4.165
3.147,4.165
3.158,4.189
3.169,4.189
3.18,4.16
3.191,4.183
3.202,4.183
3.213,4.189
3.224,4.195
3.235,4.16
3.246,4.16
3.257,4.16
3.268,4.16
3.279,4.165
3.289,4.183
3.3,4.195
3.311,4.195
3.322,4.201
3.333,4.201
3.344,4.195
3.355,4.219
3.366,4.225
3.377,4.23
3.388,4.236
3.399,4.236
3.41,4.236
3.421,4.236
3.432,4.242
3.443,4.242
3.454,4.248
3.465,4.254
3.476,4.248
3.487,4.26
3.498,4.26
3.509,4.26
3.52,4.272
3.531,4.284
3.542,4.295
3.553,4.295
3.564,4.295
3.575,4.295
3.586,4.301
3.596,4.295
3.607,4.295
3.618,4.301
3.629,4.301
3.64,4.301
3.651,4.307
3.662,4.307
3.673,4.307
3.684,4.313
3.695,4.295
3.706,4.295
3.717,4.313
3.728,4.313
3.739,4.325
3.75,4.331
3.761,4.331
3.772,4.331
3.783,4.325
3.794,4.325
3.805,4.325
3.816,4.331
3.827,4.331
3.838,4.337
3.849,4.343
3.86,4.319
3.871,4.319
3.882,4.331
3.893,4.331
3.904,4.343
3.914,4.343
3.925,4.331
3.936,4.331
3.947,4.331
3.958,4.331
3.969,4.349
3.98,4.36
3.991,4.355
4.002,4.355
4.013,4.355
4.024,4.355
4.035,4.366
4.046,4.366
4.057,4.366
4.068,4.355
4.079,4.349
4.09,4.343
4.101,4.337
4.112,4.325
4.123,4.313
4.134,4.313
4.145,4.313
4.156,4.331
4.167,4.337
4.178,4.343
4.189,4.349
4.2,4.331
4.211,4.325
4.221,4.337
4.232,4.337
4.243,4.343
4.254,4.343
4.265,4.337
4.276,4.337
4.287,4.319
4.298,4.325
4.309,4.325
4.32,4.325
4.331,4.313
4.342,4.313
4.353,4.313
4.364,4.313
4.375,4.319
4.386,4.313
4.397,4.319
4.408,4.319
4.419,4.319
4.43,4.325
4.441,4.325
4.452,4.325
4.463,4.337
4.474,4.325
4.485,4.313
4.496,4.295
4.507,4.295
4.518,4.295
4.529,4.295
4.539,4.307
4.55,4.307
4.561,4.301
4.572,4.301
4.583,4.301
4.594,4.29
4.605,4.29
4.616,4.29
4.627,4.29
4.638,4.29
4.649,4.29
4.66,4.284
4.671,4.278
4.682,4.266
4.693,4.266
4.704,4.26
4.715,4.26
4.726,4.272
4.737,4.26
4.748,4.26
4.759,4.254
4.77,4.242
4.781,4.242
4.792,4.242
4.803,4.254
4.814,4.242
4.825,4.242
4.836,4.242
4.846,4.23
4.857,4.23
4.868,4.236
4.879,4.236
4.89,4.236
4.901,4.236
4.912,4.219
4.923,4.213
4.934,4.207
4.945,4.201
4.956,4.201
4.967,4.201
4.978,4.219
4.989,4.207
5,4.207
5.011,4.207
5.022,4.189
5.033,4.189
5.044,4.189
5.055,4.183
5.066,4.183
5.077,4.183
5.088,4.165
5.099,4.16
5.11,4.16
5.121,4.154
5.132,4.13
5.143,4.13
5.154,4.124
5.164,4.112
5.175,4.118
5.186,4.106
5.197,4.112
5.208,4.118
5.219,4.124
5.23,4.124
5.241,4.124
5.252,4.118
5.263,4.1
5.274,4.1
5.285,4.1
5.296,4.095
5.307,4.1
5.318,4.1
5.329,4.1
5.34,4.077
5.351,4.083
5.362,4.077
5.373,4.077
5.384,4.077
5.395,4.077
5.406,4.077
5.417,4.077
5.428,4.065
5.439,4.059
5.45,4.035
5.461,4.041
5.471,4.041
5.482,4.041
5.493,4.041
5.504,4.024
5.515,4.018
5.526,4.012
5.537,4
5.548,3.988
5.559,3.988
5.57,3.988
5.581,4
5.592,3.988
5.603,3.97
5.614,3.97
5.625,3.97
5.636,3.97
5.647,3.982
5.658,3.965
5.669,3.947
5.68,3.947
5.691,3.929
5.702,3.929
5.713,3.923
5.724,3.923
5.735,3.929
5.746,3.929
5.757,3.935
5.768,3.941
5.779,3.923
5.789,3.911
5.8,3.894
5.811,3.882
5.822,3.87
5.833,3.864
5.844,3.864
5.855,3.864
5.866,3.87
5.877,3.876
5.888,3.858
5.899,3.858
5.91,3.858
5.921,3.846
5.932,3.846
5.943,3.835
5.954,3.835
5.965,3.817
5.976,3.793
5.987,3.787
5.998,3.787
6.009,3.758
6.02,3.758
6.031,3.758
6.042,3.752
6.053,3.758
6.064,3.752
6.075,3.746
6.086,3.746
6.096,3.722
6.107,3.722
6.118,3.722
6.129,3.716
6.14,3.716
6.151,3.716
6.162,3.693
6.173,3.681
6.184,3.675
6.195,3.657
6.206,3.645
6.217,3.645
6.228,3.645
6.239,3.651
6.25,3.645
6.261,3.634
6.272,3.634
6.283,3.604
6.294,3.598
6.305,3.592
6.316,3.581
6.327,3.581
6.338,3.575
6.349,3.557
6.36,3.551
6.371,3.533
6.382,3.533
6.393,3.521
6.404,3.521
6.414,3.51
6.425,3.51
6.436,3.504
6.447,3.504
6.458,3.492
6.469,3.474
6.48,3.468
6.491,3.456
6.502,3.439
6.513,3.427
6.524,3.427
6.535,3.409
6.546,3.409
6.557,3.397
6.568,3.397
6.579,3.374
6.59,3.356
6.601,3.356
6.612,3.35
6.623,3.35
6.634,3.344
6.645,3.338
6.656,3.321
6.667,3.315
6.678,3.303
6.689,3.297
6.7,3.279
6.711,3.273
6.721,3.256
6.732,3.238
6.743,3.238
6.754,3.22
6.765,3.22
6.776,3.22
6.787,3.202
6.798,3.202
6.809,3.191
6.82,3.179
6.831,3.173
6.842,3.161
6.853,3.161
6.864,3.155
6.875,3.143
6.886,3.126
6.897,3.12
6.908,3.114
6.919,3.114
6.93,3.108
6.941,3.102
6.952,3.096
6.963,3.072
6.974,3.055
6.985,3.043
6.996,3.037
7.007,3.019
7.018,3.013
7.029,3.007
7.039,2.99
7.05,2.984
7.061,2.978
7.072,2.978
7.083,2.936
7.094,2.931
7.105,2.931
7.116,2.913
7.127,2.907
7.138,2.895
7.149,2.86
7.16,2.854
7.171,2.86
7.182,2.86
7.193,2.871
7.204,2.848
7.215,2.824
7.226,2.824
7.237,2.812
7.248,2.812
7.259,2.812
7.27,2.789
7.281,2.783
7.292,2.753
7.303,2.747
7.314,2.742
7.325,2.73
7.336,2.736
7.346,2.724
7.357,2.718
7.368,2.712
7.379,2.688
7.39,2.659
7.401,2.659
7.412,2.647
7.423,2.635
7.434,2.635
7.445,2.617
7.456,2.617
7.467,2.612
7.478,2.6
7.489,2.6
7.5,2.588
7.511,2.576
7.522,2.57
7.533,2.552
7.544,2.541
7.555,2.517
7.566,2.511
7.577,2.505
7.588,2.487
7.599,2.476
7.61,2.47
7.621,2.464
7.632,2.44
7.643,2.434
7.654,2.434
7.664,2.434
7.675,2.417
7.686,2.405
7.697,2.399
7.708,2.393
7.719,2.375
7.73,2.357
7.741,2.352
7.752,2.34
7.763,2.334
7.774,2.322
7.785,2.322
7.796,2.316
7.807,2.31
7.818,2.298
7.829,2.287
7.84,2.275
7.851,2.257
7.862,2.245
7.873,2.233
7.884,2.233
7.895,2.216
7.906,2.21
7.917,2.21
7.928,2.198
7.939,2.198
7.95,2.18
7.961,2.174
7.971,2.162
7.982,2.139
7.993,2.139
8.004,2.133
8.015,2.127
8.026,2.109
8.037,2.103
8.048,2.097
8.059,2.086
8.07,2.056
8.081,2.05
8.092,2.05
8.103,2.021
8.114,2.021
8.125,2.009
8.136,1.997
8.147,1.997
8.158,1.985
8.169,1.985
8.18,1.973
8.191,1.956
8.202,1.956
8.213,1.944
8.224,1.926
8.235,1.926
8.246,1.92
8.257,1.897
8.268,1.897
8.279,1.897
8.289,1.891
8.3,1.885
8.311,1.879
8.322,1.861
8.333,1.849
8.344,1.843
8.355,1.832
8.366,1.826
8.377,1.814
8.388,1.814
8.399,1.802
8.41,1.784
8.421,1.778
8.432,1.761
8.443,1.755
8.454,1.743
8.465,1.731
8.476,1.719
8.487,1.713
8.498,1.708
8.509,1.702
8.52,1.702
8.531,1.702
8.542,1.696
8.553,1.672
8.564,1.666
8.575,1.66
8.586,1.648
8.596,1.643
8.607,1.631
8.618,1.613
8.629,1.607
8.64,1.595
8.651,1.578
8.662,1.566
8.673,1.566
8.684,1.566
8.695,1.548
8.706,1.554
8.717,1.554
8.728,1.542
8.739,1.542
8.75,1.524
8.761,1.513
8.772,1.513
8.783,1.513
8.794,1.495
8.805,1.477
8.816,1.477
8.827,1.471
8.838,1.465
8.849,1.453
8.86,1.453
8.871,1.453
8.882,1.436
8.893,1.424
8.904,1.424
8.914,1.424
8.925,1.4
8.936,1.388
8.947,1.388
8.958,1.383
8.969,1.371
8.98,1.359
8.991,1.353
9.002,1.347
9.013,1.341
9.024,1.323
9.035,1.323
9.046,1.323
9.057,1.306
9.068,1.3
9.079,1.3
9.09,1.3
9.101,1.294
9.112,1.288
9.123,1.282
9.134,1.258
9.145,1.247
9.156,1.241
9.167,1.229
9.178,1.223
9.189,1.223
9.2,1.217
9.211,1.205
9.221,1.205
9.232,1.199
9.243,1.188
9.254,1.182
9.265,1.176
9.276,1.17
9.287,1.152
9.298,1.152
9.309,1.14
9.32,1.14
9.331,1.129
9.342,1.111
9.353,1.111
9.364,1.105
9.375,1.099
9.386,1.099
9.397,1.093
9.408,1.081
9.419,1.081
9.43,1.064
9.441,1.052
9.452,1.052
9.463,1.034
9.474,1.028
9.485,1.028
9.496,1.01
9.507,1.004
9.518,1.004
9.529,0.9926
9.539,0.9867
9.55,0.9867
9.561,0.9808
9.572,0.9749
9.583,0.969
9.594,0.9631
9.605,0.9572
9.616,0.9453
9.627,0.9453
9.638,0.9394
9.649,0.9217
9.66,0.9217
9.671,0.9158
9.682,0.9099
9.693,0.9099
9.704,0.904
9.715,0.8863
9.726,0.8863
9.737,0.8804
9.748,0.8685
9.759,0.8685
9.77,0.8626
9.781,0.8508
9.792,0.8508
9.803,0.8508
9.814,0.8449
9.825,0.8331
9.836,0.8272
9.846,0.8154
9.857,0.8095
9.868,0.8095
9.879,0.7976
9.89,0.7976
9.901,0.7799
9.912,0.7799
9.923,0.7799
9.934,0.7622
9.945,0.7681
9.956,0.7622
9.967,0.7563
9.978,0.7563
9.989,0.7504
10,0.7445
